Sample5;;Sample5;;Sample5;;Sample5;
Wavelength (nm);Abs;Wavelength (nm);Abs;Wavelength (nm);Abs;Wavelength (nm);Abs
;;;;;;;
;;;;;;;
800.06519;-0.00812;800.06519;-0.0086;800.06519;-0.00662;800.06519;-0.00775
798.95801;-0.00837;798.95801;-0.0086;798.95801;-0.00662;798.95801;-0.00797
797.98883;-0.00914;797.98883;-0.00901;797.98883;-0.00701;797.98883;-0.00885
797.01923;-0.00873;797.01923;-0.00885;797.01923;-0.00731;797.01923;-0.00835
796.04926;-0.00862;796.04926;-0.00842;796.04926;-0.00669;796.04926;-0.0079
794.94031;-0.00826;794.94031;-0.00837;794.94031;-0.00686;794.94031;-0.00792
793.96954;-0.00881;793.96954;-0.00804;793.96954;-0.00694;793.96954;-0.00804
792.99841;-0.00833;792.99841;-0.00815;792.99841;-0.00727;792.99841;-0.00763
792.02692;-0.00899;792.02692;-0.00881;792.02692;-0.00766;792.02692;-0.00834
791.05505;-0.00839;791.05505;-0.00813;791.05505;-0.00705;791.05505;-0.00707
789.94385;-0.00825;789.94385;-0.00789;789.94385;-0.00745;789.94385;-0.00738
788.97119;-0.00835;788.97119;-0.00781;788.97119;-0.00785;788.97119;-0.00729
787.99811;-0.00846;787.99811;-0.00779;787.99811;-0.00768;787.99811;-0.00779
787.02472;-0.00861;787.02472;-0.00776;787.02472;-0.00767;787.02472;-0.00766
786.0509;-0.00862;786.0509;-0.00815;786.0509;-0.00776;786.0509;-0.00761
784.93756;-0.00901;784.93756;-0.00816;784.93756;-0.00862;784.93756;-0.00759
783.96295;-0.00853;783.96295;-0.00705;783.96295;-0.0081;783.96295;-0.00705
782.98798;-0.00846;782.98798;-0.00654;782.98798;-0.00803;782.98798;-0.00669
782.01263;-0.00884;782.01263;-0.00733;782.01263;-0.0081;782.01263;-0.0076
781.03693;-0.0086;781.03693;-0.00682;781.03693;-0.00814;781.03693;-0.00714
780.06085;-0.00913;780.06085;-0.00738;780.06085;-0.00831;780.06085;-0.00749
778.94495;-0.00919;778.94495;-0.00707;778.94495;-0.00858;778.94495;-0.00727
777.96808;-0.00858;777.96808;-0.007;777.96808;-0.00835;777.96808;-0.00737
776.99084;-0.00866;776.99084;-0.00706;776.99084;-0.00838;776.99084;-0.00724
776.01324;-0.00925;776.01324;-0.00752;776.01324;-0.00912;776.01324;-0.00753
775.03528;-0.0093;775.03528;-0.00764;775.03528;-0.0087;775.03528;-0.00772
774.05695;-0.00877;774.05695;-0.00706;774.05695;-0.00817;774.05695;-0.00711
772.93842;-0.00878;772.93842;-0.00782;772.93842;-0.00809;772.93842;-0.00734
771.95929;-0.00863;771.95929;-0.00792;771.95929;-0.00818;771.95929;-0.00752
770.97986;-0.00883;770.97986;-0.00808;770.97986;-0.00849;770.97986;-0.00746
770;-0.00861;770;-0.00763;770;-0.00856;770;-0.00745
769.01978;-0.00881;769.01978;-0.00842;769.01978;-0.00859;769.01978;-0.00804
768.03925;-0.00865;768.03925;-0.00874;768.03925;-0.0088;768.03925;-0.00787
767.05829;-0.0081;767.05829;-0.00886;767.05829;-0.00862;767.05829;-0.00781
765.93677;-0.0084;765.93677;-0.00902;765.93677;-0.00868;765.93677;-0.00813
764.95508;-0.00805;764.95508;-0.00862;764.95508;-0.00796;764.95508;-0.00805
763.97302;-0.0078;763.97302;-0.00866;763.97302;-0.00824;763.97302;-0.00778
762.9906;-0.00776;762.9906;-0.00871;762.9906;-0.00748;762.9906;-0.00795
762.00781;-0.00765;762.00781;-0.00857;762.00781;-0.00777;762.00781;-0.00824
761.02466;-0.0076;761.02466;-0.00876;761.02466;-0.00766;761.02466;-0.0082
760.04114;-0.00778;760.04114;-0.00901;760.04114;-0.00746;760.04114;-0.00807
759.05731;-0.00799;759.05731;-0.00901;759.05731;-0.00748;759.05731;-0.00856
757.93243;-0.00763;757.93243;-0.00882;757.93243;-0.00743;757.93243;-0.00835
756.94781;-0.00753;756.94781;-0.00885;756.94781;-0.00682;756.94781;-0.00807
755.96283;-0.00757;755.96283;-0.00881;755.96283;-0.007;755.96283;-0.00822
754.97748;-0.00751;754.97748;-0.00868;754.97748;-0.00672;754.97748;-0.00823
753.99176;-0.00788;753.99176;-0.00905;753.99176;-0.00718;753.99176;-0.00859
753.00568;-0.00775;753.00568;-0.00947;753.00568;-0.00773;753.00568;-0.0091
752.01929;-0.00796;752.01929;-0.00878;752.01929;-0.00777;752.01929;-0.00875
751.03253;-0.00781;751.03253;-0.00893;751.03253;-0.00787;751.03253;-0.00878
750.04541;-0.00834;750.04541;-0.00879;750.04541;-0.00794;750.04541;-0.00872
749.05792;-0.00844;749.05792;-0.00903;749.05792;-0.00821;749.05792;-0.00878
748.07007;-0.00831;748.07007;-0.00887;748.07007;-0.00838;748.07007;-0.00874
746.94067;-0.00831;746.94067;-0.00882;746.94067;-0.00862;746.94067;-0.00874
745.95209;-0.00857;745.95209;-0.00852;745.95209;-0.0086;745.95209;-0.00888
744.96313;-0.00854;744.96313;-0.00826;744.96313;-0.00877;744.96313;-0.00865
743.97388;-0.00859;743.97388;-0.00828;743.97388;-0.0089;743.97388;-0.00882
742.98419;-0.0091;742.98419;-0.00813;742.98419;-0.00885;742.98419;-0.00885
741.9942;-0.00897;741.9942;-0.00784;741.9942;-0.0087;741.9942;-0.00886
741.00385;-0.00895;741.00385;-0.00777;741.00385;-0.00862;741.00385;-0.00861
740.01318;-0.00912;740.01318;-0.00745;740.01318;-0.00866;740.01318;-0.00866
739.02209;-0.00914;739.02209;-0.00723;739.02209;-0.00879;739.02209;-0.00864
738.0307;-0.00905;738.0307;-0.00719;738.0307;-0.00835;738.0307;-0.0084
737.03894;-0.009;737.03894;-0.00705;737.03894;-0.00856;737.03894;-0.00831
736.04688;-0.00893;736.04688;-0.00727;736.04688;-0.00831;736.04688;-0.00812
735.05444;-0.00889;735.05444;-0.00747;735.05444;-0.00829;735.05444;-0.00804
734.06165;-0.00877;734.06165;-0.00754;734.06165;-0.00816;734.06165;-0.00805
733.06848;-0.00891;733.06848;-0.00778;733.06848;-0.00825;733.06848;-0.00818
731.93304;-0.00886;731.93304;-0.00807;731.93304;-0.00815;731.93304;-0.0081
730.93921;-0.00915;730.93921;-0.00832;730.93921;-0.00809;730.93921;-0.00818
729.94495;-0.00915;729.94495;-0.00861;729.94495;-0.00788;729.94495;-0.00794
728.95038;-0.00903;728.95038;-0.00877;728.95038;-0.00762;728.95038;-0.00792
727.95551;-0.0094;727.95551;-0.00905;727.95551;-0.00812;727.95551;-0.00832
726.96027;-0.00915;726.96027;-0.00907;726.96027;-0.0078;726.96027;-0.00804
725.96466;-0.00931;725.96466;-0.00942;725.96466;-0.00785;725.96466;-0.00816
724.96869;-0.00926;724.96869;-0.00928;724.96869;-0.00764;724.96869;-0.00793
723.97241;-0.00931;723.97241;-0.00942;723.97241;-0.00788;723.97241;-0.00796
722.97577;-0.00943;722.97577;-0.00933;722.97577;-0.00779;722.97577;-0.008
721.97882;-0.00951;721.97882;-0.00943;721.97882;-0.00779;721.97882;-0.00816
720.98151;-0.00911;720.98151;-0.00921;720.98151;-0.00757;720.98151;-0.00783
719.98389;-0.00937;719.98389;-0.00931;719.98389;-0.00741;719.98389;-0.00785
718.98584;-0.00948;718.98584;-0.00936;718.98584;-0.00753;718.98584;-0.00805
717.98755;-0.00931;717.98755;-0.0094;717.98755;-0.00729;717.98755;-0.00787
716.98889;-0.00933;716.98889;-0.00924;716.98889;-0.00729;716.98889;-0.00768
715.98987;-0.00938;715.98987;-0.00926;715.98987;-0.00703;715.98987;-0.00785
714.99054;-0.00937;714.99054;-0.00927;714.99054;-0.00713;714.99054;-0.00789
713.99084;-0.00954;713.99084;-0.00946;713.99084;-0.00731;713.99084;-0.00807
712.99078;-0.00948;712.99078;-0.00952;712.99078;-0.00744;712.99078;-0.00784
711.99048;-0.00924;711.99048;-0.00923;711.99048;-0.00724;711.99048;-0.00777
710.98975;-0.00926;710.98975;-0.00935;710.98975;-0.00763;710.98975;-0.00799
709.98871;-0.00923;709.98871;-0.00938;709.98871;-0.00754;709.98871;-0.008
708.98737;-0.00918;708.98737;-0.00938;708.98737;-0.00788;708.98737;-0.00821
707.98566;-0.00934;707.98566;-0.00936;707.98566;-0.00797;707.98566;-0.0086
706.98364;-0.00937;706.98364;-0.00959;706.98364;-0.00816;706.98364;-0.00851
705.98126;-0.00908;705.98126;-0.00933;705.98126;-0.00832;705.98126;-0.00832
704.97858;-0.00876;704.97858;-0.00938;704.97858;-0.0082;704.97858;-0.00845
703.97552;-0.00915;703.97552;-0.00939;703.97552;-0.0083;703.97552;-0.00876
702.97217;-0.00879;702.97217;-0.00938;702.97217;-0.00847;702.97217;-0.00855
701.96844;-0.00892;701.96844;-0.00969;701.96844;-0.00885;701.96844;-0.00866
700.96442;-0.00899;700.96442;-0.00973;700.96442;-0.00894;700.96442;-0.00869
699.96008;-0.00914;699.96008;-0.00988;699.96008;-0.00907;699.96008;-0.00884
698.95538;-0.00905;698.95538;-0.00965;698.95538;-0.00905;698.95538;-0.00893
697.95038;-0.00884;697.95038;-0.00936;697.95038;-0.0087;697.95038;-0.00878
696.94501;-0.00873;696.94501;-0.00965;696.94501;-0.00909;696.94501;-0.00862
695.93933;-0.00894;695.93933;-0.00936;695.93933;-0.00869;695.93933;-0.00863
694.93329;-0.00887;694.93329;-0.00979;694.93329;-0.00919;694.93329;-0.00922
694.07074;-0.00858;694.07074;-0.00952;694.07074;-0.00867;694.07074;-0.00893
693.06415;-0.0088;693.06415;-0.00971;693.06415;-0.00893;693.06415;-0.00912
692.05719;-0.00887;692.05719;-0.0098;692.05719;-0.00918;692.05719;-0.00931
691.04993;-0.00865;691.04993;-0.00965;691.04993;-0.00903;691.04993;-0.00917
690.0423;-0.00886;690.0423;-0.00985;690.0423;-0.00908;690.0423;-0.00944
689.03436;-0.00836;689.03436;-0.00962;689.03436;-0.00909;689.03436;-0.0094
688.02612;-0.00865;688.02612;-0.00992;688.02612;-0.00917;688.02612;-0.0094
687.01758;-0.00831;687.01758;-0.00955;687.01758;-0.00927;687.01758;-0.00944
686.00867;-0.00843;686.00867;-0.00932;686.00867;-0.0088;686.00867;-0.00923
684.99945;-0.00836;684.99945;-0.00967;684.99945;-0.00905;684.99945;-0.00944
683.98987;-0.00872;683.98987;-0.00979;683.98987;-0.00915;683.98987;-0.00928
682.97998;-0.00894;682.97998;-0.00994;682.97998;-0.00936;682.97998;-0.00973
681.96979;-0.00913;681.96979;-0.00992;681.96979;-0.00952;681.96979;-0.00948
680.95929;-0.00907;680.95929;-0.0099;680.95929;-0.00941;680.95929;-0.00951
679.94843;-0.00892;679.94843;-0.00948;679.94843;-0.00918;679.94843;-0.00939
678.93732;-0.00904;678.93732;-0.00961;678.93732;-0.00941;678.93732;-0.00965
678.07031;-0.00923;678.07031;-0.00961;678.07031;-0.00945;678.07031;-0.0097
677.05859;-0.00912;677.05859;-0.00973;677.05859;-0.0093;677.05859;-0.00967
676.04651;-0.00942;676.04651;-0.00964;676.04651;-0.0096;676.04651;-0.00981
675.03412;-0.00954;675.03412;-0.00975;675.03412;-0.00941;675.03412;-0.00958
674.02136;-0.00979;674.02136;-0.00994;674.02136;-0.00974;674.02136;-0.00989
673.00836;-0.00954;673.00836;-0.00979;673.00836;-0.00942;673.00836;-0.00964
671.995;-0.00966;671.995;-0.0097;671.995;-0.00958;671.995;-0.00972
670.98132;-0.00999;670.98132;-0.00969;670.98132;-0.00929;670.98132;-0.00967
669.96735;-0.01015;669.96735;-0.00993;669.96735;-0.0096;669.96735;-0.00989
668.95306;-0.00997;668.95306;-0.01017;668.95306;-0.00939;668.95306;-0.01004
667.93842;-0.01005;667.93842;-0.00984;667.93842;-0.0093;667.93842;-0.00992
667.06848;-0.0102;667.06848;-0.00992;667.06848;-0.00924;667.06848;-0.00974
666.05328;-0.00991;666.05328;-0.00995;666.05328;-0.00931;666.05328;-0.00968
665.03778;-0.01006;665.03778;-0.00987;665.03778;-0.00928;665.03778;-0.00986
664.02197;-0.00994;664.02197;-0.00989;664.02197;-0.00911;664.02197;-0.01001
663.0058;-0.01011;663.0058;-0.00999;663.0058;-0.00916;663.0058;-0.00981
661.98938;-0.01018;661.98938;-0.00985;661.98938;-0.00881;661.98938;-0.00971
660.9726;-0.01016;660.9726;-0.01014;660.9726;-0.00909;660.9726;-0.00995
659.95551;-0.01019;659.95551;-0.01014;659.95551;-0.00894;659.95551;-0.00981
658.93811;-0.01005;658.93811;-0.01005;658.93811;-0.00867;658.93811;-0.01006
658.0658;-0.0101;658.0658;-0.00992;658.0658;-0.00872;658.0658;-0.0099
657.04785;-0.01014;657.04785;-0.00996;657.04785;-0.00868;657.04785;-0.00986
656.02954;-0.0098;656.02954;-0.00997;656.02954;-0.0085;656.02954;-0.00964
655.01099;-0.00992;655.01099;-0.0099;655.01099;-0.00848;655.01099;-0.00979
653.99207;-0.00965;653.99207;-0.00987;653.99207;-0.00856;653.99207;-0.00967
652.97284;-0.00996;652.97284;-0.01017;652.97284;-0.0084;652.97284;-0.00954
651.95331;-0.00992;651.95331;-0.00979;651.95331;-0.0086;651.95331;-0.00957
650.93347;-0.01002;650.93347;-0.00991;650.93347;-0.00878;650.93347;-0.00969
650.05908;-0.01003;650.05908;-0.00973;650.05908;-0.0086;650.05908;-0.00957
649.0387;-0.00969;649.0387;-0.0095;649.0387;-0.00862;649.0387;-0.00911
648.01801;-0.01025;648.01801;-0.00984;648.01801;-0.0089;648.01801;-0.00965
646.99701;-0.00976;646.99701;-0.00941;646.99701;-0.00896;646.99701;-0.00897
645.97571;-0.01019;645.97571;-0.00952;645.97571;-0.00913;645.97571;-0.00938
644.95404;-0.00982;644.95404;-0.0097;644.95404;-0.00931;644.95404;-0.00919
643.93213;-0.01013;643.93213;-0.00966;643.93213;-0.00932;643.93213;-0.00903
643.05597;-0.00988;643.05597;-0.00945;643.05597;-0.00947;643.05597;-0.0089
642.03345;-0.01016;642.03345;-0.00971;642.03345;-0.00965;642.03345;-0.00881
641.01068;-0.00994;641.01068;-0.00959;641.01068;-0.00975;641.01068;-0.00853
639.98755;-0.00988;639.98755;-0.0097;639.98755;-0.00965;639.98755;-0.00843
638.96417;-0.01006;638.96417;-0.00982;638.96417;-0.01005;638.96417;-0.00827
637.94049;-0.00998;637.94049;-0.00979;637.94049;-0.00987;637.94049;-0.00836
637.06274;-0.01007;637.06274;-0.00995;637.06274;-0.01003;637.06274;-0.00815
636.03851;-0.01002;636.03851;-0.01022;636.03851;-0.01023;636.03851;-0.00833
635.01392;-0.00992;635.01392;-0.01008;635.01392;-0.00996;635.01392;-0.00783
633.98907;-0.01003;633.98907;-0.01018;633.98907;-0.01014;633.98907;-0.00792
632.96393;-0.00991;632.96393;-0.01029;632.96393;-0.01015;632.96393;-0.00773
631.93848;-0.00999;631.93848;-0.01032;631.93848;-0.01022;631.93848;-0.00771
631.05927;-0.01;631.05927;-0.01051;631.05927;-0.01043;631.05927;-0.00776
630.03326;-0.00995;630.03326;-0.01014;630.03326;-0.01012;630.03326;-0.0074
629.00696;-0.01009;629.00696;-0.01033;629.00696;-0.01018;629.00696;-0.0074
627.98035;-0.01033;627.98035;-0.0104;627.98035;-0.01024;627.98035;-0.00759
626.95343;-0.01002;626.95343;-0.01037;626.95343;-0.0102;626.95343;-0.00752
626.073;-0.01023;626.073;-0.01058;626.073;-0.01034;626.073;-0.00755
625.04553;-0.01011;625.04553;-0.01034;625.04553;-0.01012;625.04553;-0.00718
624.01776;-0.01022;624.01776;-0.01034;624.01776;-0.01043;624.01776;-0.00738
622.98975;-0.01031;622.98975;-0.01037;622.98975;-0.01021;622.98975;-0.00724
621.96136;-0.01024;621.96136;-0.01023;621.96136;-0.01023;621.96136;-0.00716
620.93274;-0.01039;620.93274;-0.01046;620.93274;-0.01045;620.93274;-0.00741
620.05084;-0.01053;620.05084;-0.01068;620.05084;-0.01038;620.05084;-0.00758
619.02167;-0.01036;619.02167;-0.01059;619.02167;-0.01046;619.02167;-0.00766
617.99219;-0.01067;617.99219;-0.01043;617.99219;-0.01034;617.99219;-0.00756
616.9624;-0.01054;616.9624;-0.01054;616.9624;-0.01049;616.9624;-0.00775
615.93237;-0.01046;615.93237;-0.01016;615.93237;-0.0103;615.93237;-0.0076
615.04926;-0.01038;615.04926;-0.01049;615.04926;-0.01009;615.04926;-0.00788
614.01862;-0.01065;614.01862;-0.01067;614.01862;-0.01043;614.01862;-0.00792
612.98773;-0.01046;612.98773;-0.01032;612.98773;-0.01037;612.98773;-0.00802
611.9566;-0.01038;611.9566;-0.01015;611.9566;-0.01019;611.9566;-0.0079
611.07251;-0.01054;611.07251;-0.01043;611.07251;-0.00996;611.07251;-0.00797
610.04077;-0.0106;610.04077;-0.01033;610.04077;-0.00977;610.04077;-0.00821
609.00879;-0.01064;609.00879;-0.01028;609.00879;-0.00956;609.00879;-0.00833
607.9765;-0.01033;607.9765;-0.01031;607.9765;-0.00951;607.9765;-0.0086
606.94391;-0.01059;606.94391;-0.0105;606.94391;-0.00938;606.94391;-0.00876
606.05865;-0.01061;606.05865;-0.0103;606.05865;-0.00916;606.05865;-0.00873
605.02551;-0.01027;605.02551;-0.0101;605.02551;-0.00906;605.02551;-0.00874
603.99213;-0.01054;603.99213;-0.0105;603.99213;-0.00904;603.99213;-0.00903
602.95844;-0.01033;602.95844;-0.01042;602.95844;-0.00892;602.95844;-0.00909
602.0722;-0.01028;602.0722;-0.01025;602.0722;-0.00875;602.0722;-0.00927
601.03802;-0.01013;601.03802;-0.01033;601.03802;-0.00853;601.03802;-0.00938
600.00354;-0.01027;600.00354;-0.01038;600.00354;-0.00866;600.00354;-0.00928
598.96875;-0.01025;598.96875;-0.01056;598.96875;-0.00865;598.96875;-0.00938
597.93372;-0.01048;597.93372;-0.01051;597.93372;-0.00861;597.93372;-0.00949
597.04626;-0.01038;597.04626;-0.0104;597.04626;-0.00834;597.04626;-0.00959
596.01068;-0.01048;596.01068;-0.01072;596.01068;-0.00856;596.01068;-0.00975
594.97485;-0.01049;594.97485;-0.01055;594.97485;-0.00854;594.97485;-0.00982
593.93872;-0.01069;593.93872;-0.01047;593.93872;-0.00851;593.93872;-0.00992
593.05035;-0.01065;593.05035;-0.01056;593.05035;-0.00851;593.05035;-0.0099
592.01367;-0.01074;592.01367;-0.01065;592.01367;-0.00877;592.01367;-0.0101
590.97675;-0.01077;590.97675;-0.01064;590.97675;-0.00903;590.97675;-0.01015
589.93951;-0.01071;589.93951;-0.01067;589.93951;-0.0091;589.93951;-0.0103
589.05029;-0.01076;589.05029;-0.01061;589.05029;-0.00902;589.05029;-0.01015
588.01251;-0.01097;588.01251;-0.0108;588.01251;-0.0094;588.01251;-0.01038
586.97449;-0.01065;586.97449;-0.0106;586.97449;-0.00907;586.97449;-0.01
585.93622;-0.01044;585.93622;-0.01034;585.93622;-0.00937;585.93622;-0.0099
585.04602;-0.01084;585.04602;-0.01062;585.04602;-0.00965;585.04602;-0.01035
584.0072;-0.01081;584.0072;-0.011;584.0072;-0.00963;584.0072;-0.01038
582.96814;-0.0106;582.96814;-0.01081;582.96814;-0.00987;582.96814;-0.0103
581.92877;-0.01086;581.92877;-0.01083;581.92877;-0.00999;581.92877;-0.01031
581.03766;-0.01097;581.03766;-0.01076;581.03766;-0.01015;581.03766;-0.01024
579.9978;-0.01084;579.9978;-0.01079;579.9978;-0.01034;579.9978;-0.01036
578.95764;-0.01096;578.95764;-0.01084;578.95764;-0.01069;578.95764;-0.0105
578.06592;-0.01107;578.06592;-0.0111;578.06592;-0.01066;578.06592;-0.01062
577.02527;-0.01085;577.02527;-0.01085;577.02527;-0.01049;577.02527;-0.01042
575.98431;-0.01073;575.98431;-0.01098;575.98431;-0.01043;575.98431;-0.01046
574.94312;-0.01076;574.94312;-0.01092;574.94312;-0.01057;574.94312;-0.01041
574.05048;-0.0109;574.05048;-0.01096;574.05048;-0.01086;574.05048;-0.0107
573.00879;-0.01085;573.00879;-0.01115;573.00879;-0.01086;573.00879;-0.01067
571.9668;-0.01067;571.9668;-0.01099;571.9668;-0.01081;571.9668;-0.0105
571.07349;-0.0106;571.07349;-0.01089;571.07349;-0.01077;571.07349;-0.01051
570.03101;-0.01048;570.03101;-0.01098;570.03101;-0.01082;570.03101;-0.0104
568.98822;-0.01019;568.98822;-0.0109;568.98822;-0.01081;568.98822;-0.01034
567.94525;-0.01028;567.94525;-0.01108;567.94525;-0.01094;567.94525;-0.01032
567.05103;-0.01026;567.05103;-0.01078;567.05103;-0.01089;567.05103;-0.01045
566.00751;-0.01022;566.00751;-0.01079;566.00751;-0.01102;566.00751;-0.01074
564.96375;-0.01023;564.96375;-0.01094;564.96375;-0.01118;564.96375;-0.01071
564.06885;-0.00994;564.06885;-0.01069;564.06885;-0.01089;564.06885;-0.01059
563.0246;-0.01005;563.0246;-0.01091;563.0246;-0.01091;563.0246;-0.01057
561.98004;-0.01005;561.98004;-0.01115;561.98004;-0.011;561.98004;-0.01074
560.93524;-0.00989;560.93524;-0.01084;560.93524;-0.01099;560.93524;-0.01063
560.03949;-0.00988;560.03949;-0.01095;560.03949;-0.01089;560.03949;-0.01069
558.9942;-0.0099;558.9942;-0.01101;558.9942;-0.01075;558.9942;-0.01083
557.94867;-0.00973;557.94867;-0.01107;557.94867;-0.01065;557.94867;-0.01082
557.05225;-0.00986;557.05225;-0.01109;557.05225;-0.0107;557.05225;-0.01098
556.00623;-0.00993;556.00623;-0.01109;556.00623;-0.01073;556.00623;-0.01102
554.9599;-0.00953;554.9599;-0.01112;554.9599;-0.01063;554.9599;-0.01097
554.06287;-0.0098;554.06287;-0.01114;554.06287;-0.01079;554.06287;-0.01099
553.01605;-0.00984;553.01605;-0.01124;553.01605;-0.01095;553.01605;-0.01118
551.96899;-0.00977;551.96899;-0.01114;551.96899;-0.01058;551.96899;-0.01101
551.07129;-0.0098;551.07129;-0.011;551.07129;-0.01051;551.07129;-0.01094
550.02374;-0.00987;550.02374;-0.0111;550.02374;-0.01054;550.02374;-0.01087
548.97595;-0.01002;548.97595;-0.0111;548.97595;-0.01079;548.97595;-0.01105
547.92792;-0.01024;547.92792;-0.01094;547.92792;-0.01085;547.92792;-0.01116
547.02936;-0.01015;547.02936;-0.01081;547.02936;-0.01069;547.02936;-0.01102
545.98083;-0.01028;545.98083;-0.01086;545.98083;-0.01061;545.98083;-0.01108
544.93201;-0.01006;544.93201;-0.0108;544.93201;-0.01083;544.93201;-0.01118
544.03284;-0.01031;544.03284;-0.01055;544.03284;-0.01101;544.03284;-0.01116
542.98358;-0.01034;542.98358;-0.01019;542.98358;-0.01092;542.98358;-0.01103
541.93402;-0.01013;541.93402;-0.01003;541.93402;-0.01098;541.93402;-0.01112
541.03424;-0.01016;541.03424;-0.00996;541.03424;-0.01094;541.03424;-0.01104
539.98425;-0.0099;539.98425;-0.00967;539.98425;-0.01087;539.98425;-0.01105
538.93396;-0.01026;538.93396;-0.00999;538.93396;-0.01103;538.93396;-0.01111
538.03351;-0.01023;538.03351;-0.00995;538.03351;-0.01122;538.03351;-0.01123
536.98279;-0.01029;536.98279;-0.00983;536.98279;-0.01122;536.98279;-0.01123
535.93182;-0.01008;535.93182;-0.0098;535.93182;-0.01113;535.93182;-0.01103
535.03076;-0.01029;535.03076;-0.01019;535.03076;-0.0112;535.03076;-0.01131
533.97931;-0.01024;533.97931;-0.01004;533.97931;-0.01132;533.97931;-0.01138
532.92761;-0.01004;532.92761;-0.00997;532.92761;-0.0112;532.92761;-0.01119
532.02594;-0.01013;532.02594;-0.01015;532.02594;-0.0112;532.02594;-0.01112
530.97375;-0.01033;530.97375;-0.01047;530.97375;-0.01134;530.97375;-0.01127
530.07166;-0.01033;530.07166;-0.01049;530.07166;-0.01135;530.07166;-0.01149
529.01904;-0.01046;529.01904;-0.01069;529.01904;-0.01144;529.01904;-0.01138
527.96613;-0.01011;527.96613;-0.01028;527.96613;-0.011;527.96613;-0.01094
527.06348;-0.01051;527.06348;-0.0107;527.06348;-0.01133;527.06348;-0.01117
526.01013;-0.01063;526.01013;-0.01089;526.01013;-0.01143;526.01013;-0.01125
524.95648;-0.01081;524.95648;-0.01096;524.95648;-0.01134;524.95648;-0.01126
524.05322;-0.01089;524.05322;-0.01122;524.05322;-0.01143;524.05322;-0.01141
522.99915;-0.01102;522.99915;-0.01145;522.99915;-0.01149;522.99915;-0.01152
521.94482;-0.01115;521.94482;-0.01145;521.94482;-0.01141;521.94482;-0.01136
521.04095;-0.01141;521.04095;-0.01165;521.04095;-0.01152;521.04095;-0.01143
519.98614;-0.01126;519.98614;-0.01175;519.98614;-0.01137;519.98614;-0.01154
518.93115;-0.01155;518.93115;-0.01167;518.93115;-0.01156;518.93115;-0.01171
518.02667;-0.01131;518.02667;-0.01153;518.02667;-0.01132;518.02667;-0.01146
516.97119;-0.01142;516.97119;-0.01165;516.97119;-0.01148;516.97119;-0.01153
516.06628;-0.01146;516.06628;-0.01161;516.06628;-0.0114;516.06628;-0.01147
515.01038;-0.01174;515.01038;-0.01182;515.01038;-0.01152;515.01038;-0.01172
513.95422;-0.01168;513.95422;-0.01144;513.95422;-0.01142;513.95422;-0.0115
513.04877;-0.01179;513.04877;-0.01153;513.04877;-0.01131;513.04877;-0.01156
511.99213;-0.01142;511.99213;-0.01124;511.99213;-0.01128;511.99213;-0.01153
510.93527;-0.01144;510.93527;-0.01136;510.93527;-0.01146;510.93527;-0.01164
510.02917;-0.01147;510.02917;-0.0115;510.02917;-0.0114;510.02917;-0.01155
508.97189;-0.0112;508.97189;-0.01145;508.97189;-0.01148;508.97189;-0.01173
508.06543;-0.01096;508.06543;-0.01113;508.06543;-0.01124;508.06543;-0.01148
507.00766;-0.01077;507.00766;-0.01136;507.00766;-0.01124;507.00766;-0.01143
505.94968;-0.01072;505.94968;-0.01155;505.94968;-0.01139;505.94968;-0.01168
505.04263;-0.01058;505.04263;-0.01154;505.04263;-0.01139;505.04263;-0.01143
503.98419;-0.01053;503.98419;-0.01171;503.98419;-0.01138;503.98419;-0.01161
502.92554;-0.01024;502.92554;-0.01173;502.92554;-0.01144;502.92554;-0.01157
502.01791;-0.01022;502.01791;-0.01199;502.01791;-0.01152;502.01791;-0.01165
500.9588;-0.00967;500.9588;-0.01171;500.9588;-0.01132;500.9588;-0.01147
500.05078;-0.00989;500.05078;-0.01191;500.05078;-0.01155;500.05078;-0.01159
498.99124;-0.00939;498.99124;-0.01178;498.99124;-0.01128;498.99124;-0.01146
497.93143;-0.00926;497.93143;-0.01201;497.93143;-0.0114;497.93143;-0.01135
497.02286;-0.00919;497.02286;-0.01208;497.02286;-0.01144;497.02286;-0.01139
495.96265;-0.00916;495.96265;-0.01195;495.96265;-0.01143;495.96265;-0.01139
495.05368;-0.00919;495.05368;-0.01185;495.05368;-0.01124;495.05368;-0.01124
493.99301;-0.00916;493.99301;-0.01196;493.99301;-0.01143;493.99301;-0.01124
492.93213;-0.00952;492.93213;-0.01202;492.93213;-0.01154;492.93213;-0.01138
492.02261;-0.00969;492.02261;-0.01197;492.02261;-0.01149;492.02261;-0.0111
490.96127;-0.00977;490.96127;-0.01181;490.96127;-0.01148;490.96127;-0.01104
490.05139;-0.00989;490.05139;-0.01178;490.05139;-0.01161;490.05139;-0.01098
488.98962;-0.01008;488.98962;-0.01178;488.98962;-0.01153;488.98962;-0.01099
487.92764;-0.01048;487.92764;-0.01174;487.92764;-0.01155;487.92764;-0.01109
487.01718;-0.01026;487.01718;-0.01154;487.01718;-0.01156;487.01718;-0.01085
485.95477;-0.01043;485.95477;-0.01158;485.95477;-0.01139;485.95477;-0.01072
485.04395;-0.01075;485.04395;-0.0118;485.04395;-0.01153;485.04395;-0.01083
483.98108;-0.01075;483.98108;-0.01144;483.98108;-0.01152;483.98108;-0.0107
483.06992;-0.01067;483.06992;-0.01122;483.06992;-0.01116;483.06992;-0.01038
482.00662;-0.01059;482.00662;-0.01115;482.00662;-0.01104;482.00662;-0.01037
480.94315;-0.01077;480.94315;-0.01109;480.94315;-0.01111;480.94315;-0.01029
480.0314;-0.0109;480.0314;-0.01121;480.0314;-0.01105;480.0314;-0.01032
478.96747;-0.01069;478.96747;-0.01077;478.96747;-0.01087;478.96747;-0.01024
478.05536;-0.01062;478.05536;-0.01065;478.05536;-0.01064;478.05536;-0.01001
476.99103;-0.01058;476.99103;-0.01071;476.99103;-0.01064;476.99103;-0.00992
475.92648;-0.01036;475.92648;-0.01043;475.92648;-0.01047;475.92648;-0.00975
475.01382;-0.01005;475.01382;-0.01034;475.01382;-0.01023;475.01382;-0.00939
473.94882;-0.01005;473.94882;-0.01013;473.94882;-0.01021;473.94882;-0.00929
473.03583;-0.00953;473.03583;-0.0097;473.03583;-0.00989;473.03583;-0.00896
471.97043;-0.00952;471.97043;-0.00952;471.97043;-0.00982;471.97043;-0.00888
471.05704;-0.00921;471.05704;-0.00906;471.05704;-0.0092;471.05704;-0.00855
469.99124;-0.00899;469.99124;-0.0088;469.99124;-0.00891;469.99124;-0.0083
468.9252;-0.00851;468.9252;-0.00859;468.9252;-0.00863;468.9252;-0.00789
468.01129;-0.00826;468.01129;-0.00822;468.01129;-0.00843;468.01129;-0.00768
466.94485;-0.00798;466.94485;-0.00816;466.94485;-0.0082;466.94485;-0.00736
466.03058;-0.00756;466.03058;-0.00759;466.03058;-0.00764;466.03058;-0.00707
464.96375;-0.00724;464.96375;-0.00721;464.96375;-0.00743;464.96375;-0.00663
464.04913;-0.0068;464.04913;-0.00678;464.04913;-0.00705;464.04913;-0.00639
462.98187;-0.00645;462.98187;-0.00637;462.98187;-0.00678;462.98187;-0.00605
462.06689;-0.00616;462.06689;-0.00603;462.06689;-0.00629;462.06689;-0.00579
460.99924;-0.00586;460.99924;-0.00589;460.99924;-0.00598;460.99924;-0.00549
459.93137;-0.00546;459.93137;-0.00541;459.93137;-0.00573;459.93137;-0.00517
459.01587;-0.00512;459.01587;-0.00491;459.01587;-0.00539;459.01587;-0.00477
457.94757;-0.00477;457.94757;-0.00471;457.94757;-0.00512;457.94757;-0.00439
457.03174;-0.00441;457.03174;-0.00427;457.03174;-0.00464;457.03174;-0.00418
455.96304;-0.00406;455.96304;-0.00387;455.96304;-0.00417;455.96304;-0.00383
455.04684;-0.00399;455.04684;-0.00362;455.04684;-0.004;455.04684;-0.00369
453.97778;-0.00351;453.97778;-0.00312;453.97778;-0.00363;453.97778;-0.00319
453.06125;-0.00344;453.06125;-0.00291;453.06125;-0.00349;453.06125;-0.00309
451.99176;-0.00283;451.99176;-0.00263;451.99176;-0.00316;451.99176;-0.00269
451.07489;-0.00255;451.07489;-0.00199;451.07489;-0.00273;451.07489;-0.00221
450.005;-0.00202;450.005;-0.00174;450.005;-0.00221;450.005;-0.00184
448.93491;-0.00187;448.93491;-0.00142;448.93491;-0.00196;448.93491;-0.00154
448.01752;-0.00149;448.01752;-0.00108;448.01752;-0.00162;448.01752;-0.00134
446.94705;-0.00105;446.94705;-5.67E-04;446.94705;-0.00136;446.94705;-8.71E-04
446.0293;-8.02E-04;446.0293;-1.28E-04;446.0293;-9.39E-04;446.0293;-6.17E-04
444.95844;-1.69E-04;444.95844;3.03E-04;444.95844;-4.00E-04;444.95844;-2.43E-04
444.04037;1.42E-04;444.04037;5.97E-04;444.04037;-1.42E-04;444.04037;2.14E-04
442.96912;5.52E-04;442.96912;0.0011;442.96912;3.68E-04;442.96912;6.73E-04
442.05072;0.00104;442.05072;0.00161;442.05072;6.52E-04;442.05072;8.80E-04
440.97906;0.00156;440.97906;0.00198;440.97906;0.00101;440.97906;0.00145
440.06033;0.00209;440.06033;0.00236;440.06033;0.00147;440.06033;0.00182
438.98828;0.00268;438.98828;0.00272;438.98828;0.00194;438.98828;0.00228
438.06921;0.00319;438.06921;0.00332;438.06921;0.00243;438.06921;0.00269
436.9968;0.00368;436.9968;0.00401;436.9968;0.00313;436.9968;0.00324
435.92416;0.00442;435.92416;0.00447;435.92416;0.00355;435.92416;0.00359
435.00461;0.00503;435.00461;0.00492;435.00461;0.00421;435.00461;0.00428
433.93158;0.00581;433.93158;0.00571;433.93158;0.00481;433.93158;0.00496
433.01169;0.00632;433.01169;0.00615;433.01169;0.00526;433.01169;0.00542
431.93829;0.00723;431.93829;0.00683;431.93829;0.00608;431.93829;0.00613
431.0181;0.00768;431.0181;0.0073;431.0181;0.00657;431.0181;0.00664
429.94431;0.00866;429.94431;0.00826;429.94431;0.0074;429.94431;0.00748
429.02377;0.00919;429.02377;0.00875;429.02377;0.00791;429.02377;0.00809
427.94962;0.01006;427.94962;0.00942;427.94962;0.00863;427.94962;0.00866
427.02875;0.01046;427.02875;0.00991;427.02875;0.00916;427.02875;0.00927
425.95422;0.01136;425.95422;0.01054;425.95422;0.00979;425.95422;0.00977
425.03305;0.01196;425.03305;0.0113;425.03305;0.01053;425.03305;0.01054
423.95816;0.01284;423.95816;0.01195;423.95816;0.01113;423.95816;0.01113
423.03665;0.01329;423.03665;0.01226;423.03665;0.0116;423.03665;0.01154
421.96136;0.01398;421.96136;0.01302;421.96136;0.01216;421.96136;0.01218
421.03955;0.0145;421.03955;0.01329;421.03955;0.01259;421.03955;0.01249
419.9639;0.01548;419.9639;0.01438;419.9639;0.01336;419.9639;0.01331
419.04178;0.01583;419.04178;0.01477;419.04178;0.01384;419.04178;0.0138
417.96576;0.01651;417.96576;0.01545;417.96576;0.01441;417.96576;0.01436
417.0433;0.01701;417.0433;0.01559;417.0433;0.01456;417.0433;0.01473
415.96695;0.01759;415.96695;0.01628;415.96695;0.01532;415.96695;0.0152
415.04419;0.01807;415.04419;0.01689;415.04419;0.01597;415.04419;0.01575
413.96744;0.01842;413.96744;0.01745;413.96744;0.01629;413.96744;0.01606
413.04437;0.01897;413.04437;0.01795;413.04437;0.01669;413.04437;0.01659
411.96725;0.01931;411.96725;0.01807;411.96725;0.01703;411.96725;0.01673
411.04388;0.01987;411.04388;0.01862;411.04388;0.01745;411.04388;0.01708
409.9664;0.02035;409.9664;0.01901;409.9664;0.0179;409.9664;0.0176
409.04272;0.02086;409.04272;0.01958;409.04272;0.01842;409.04272;0.01805
407.96487;0.02147;407.96487;0.02012;407.96487;0.01892;407.96487;0.01844
407.04089;0.02162;407.04089;0.02026;407.04089;0.01909;407.04089;0.01855
405.96271;0.02196;405.96271;0.02053;405.96271;0.01953;405.96271;0.01901
405.03839;0.02256;405.03839;0.021;405.03839;0.02002;405.03839;0.01926
403.95987;0.02282;403.95987;0.02139;403.95987;0.02018;403.95987;0.01958
403.03525;0.02306;403.03525;0.02142;403.03525;0.02044;403.03525;0.01988
401.95636;0.02346;401.95636;0.02181;401.95636;0.02076;401.95636;0.01996
401.03143;0.02355;401.03143;0.02195;401.03143;0.02081;401.03143;0.02014
399.95221;0.02374;399.95221;0.02211;399.95221;0.02108;399.95221;0.02039
399.02698;0.02393;399.02698;0.02233;399.02698;0.0212;399.02698;0.02047
397.94739;0.02405;397.94739;0.02252;397.94739;0.02138;397.94739;0.02065
397.02188;0.02415;397.02188;0.02252;397.02188;0.02144;397.02188;0.02051
395.94193;0.02422;395.94193;0.02275;395.94193;0.0215;395.94193;0.02072
395.01611;0.02427;395.01611;0.0227;395.01611;0.02149;395.01611;0.02067
393.93582;0.02414;393.93582;0.0227;393.93582;0.02145;393.93582;0.02068
393.0097;0.02444;393.0097;0.02282;393.0097;0.02167;393.0097;0.02075
391.92908;0.02418;391.92908;0.02246;391.92908;0.02136;391.92908;0.02053
391.00269;0.02432;391.00269;0.02274;391.00269;0.02148;391.00269;0.02051
390.07614;0.02423;390.07614;0.02253;390.07614;0.0215;390.07614;0.02048
388.995;0.02415;388.995;0.0223;388.995;0.02128;388.995;0.02045
388.06818;0.02373;388.06818;0.02217;388.06818;0.02101;388.06818;0.01999
386.98669;0.02373;386.98669;0.02184;386.98669;0.02085;386.98669;0.01988
386.05957;0.02346;386.05957;0.0218;386.05957;0.02074;386.05957;0.01957
384.97775;0.02362;384.97775;0.02194;384.97775;0.02096;384.97775;0.01985
384.05032;0.0231;384.05032;0.02128;384.05032;0.02014;384.05032;0.01932
382.96817;0.02289;382.96817;0.02114;382.96817;0.02011;382.96817;0.01907
382.04047;0.02258;382.04047;0.02084;382.04047;0.01968;382.04047;0.01905
380.95798;0.02234;380.95798;0.02063;380.95798;0.0194;380.95798;0.01866
380.03;0.02205;380.03;0.02024;380.03;0.01922;380.03;0.0185
378.94717;0.02165;378.94717;0.01998;378.94717;0.01908;378.94717;0.01811
378.01889;0.02136;378.01889;0.01976;378.01889;0.01884;378.01889;0.01794
376.93573;0.02116;376.93573;0.01927;376.93573;0.01871;376.93573;0.01782
376.00717;0.02074;376.00717;0.01914;376.00717;0.0184;376.00717;0.01744
374.92368;0.02031;374.92368;0.01874;374.92368;0.01785;374.92368;0.01712
373.99484;0.02015;373.99484;0.01886;373.99484;0.01775;373.99484;0.01675
373.06586;0.01988;373.06586;0.01842;373.06586;0.01755;373.06586;0.01666
371.9819;0.0193;371.9819;0.01795;371.9819;0.01699;371.9819;0.01605
371.05264;0.0191;371.05264;0.01772;371.05264;0.01687;371.05264;0.01599
369.96835;0.01842;369.96835;0.01728;369.96835;0.01678;369.96835;0.01547
369.03882;0.01768;369.03882;0.01694;369.03882;0.01595;369.03882;0.01508
367.95422;0.01782;367.95422;0.01652;367.95422;0.01558;367.95422;0.01443
367.02441;0.01714;367.02441;0.01606;367.02441;0.01528;367.02441;0.0147
365.93945;0.01667;365.93945;0.0157;365.93945;0.01477;365.93945;0.01392
365.00937;0.01649;365.00937;0.01574;365.00937;0.01471;365.00937;0.0137
363.92413;0.01606;363.92413;0.01473;363.92413;0.0139;363.92413;0.01312
362.99377;0.01562;362.99377;0.01449;362.99377;0.01405;362.99377;0.0128
362.06326;0.01502;362.06326;0.01433;362.06326;0.01338;362.06326;0.01268
360.97754;0.01481;360.97754;0.01429;360.97754;0.01329;360.97754;0.01229
360.04678;0.0145;360.04678;0.01391;360.04678;0.01284;360.04678;0.01212
358.96075;0.01403;358.96075;0.01357;358.96075;0.01269;358.96075;0.01144
358.02972;0.01362;358.02972;0.01319;358.02972;0.01209;358.02972;0.01111
356.94336;0.01344;356.94336;0.01311;356.94336;0.01227;356.94336;0.01099
356.01209;0.01332;356.01209;0.01323;356.01209;0.01229;356.01209;0.01103
354.92541;0.0125;354.92541;0.01261;354.92541;0.01159;354.92541;0.01027
353.99384;0.01245;353.99384;0.01236;353.99384;0.01142;353.99384;0.00994
353.06216;0.01246;353.06216;0.01195;353.06216;0.0114;353.06216;0.00999
351.97504;0.0121;351.97504;0.01198;351.97504;0.01141;351.97504;0.00957
351.04309;0.01172;351.04309;0.01134;351.04309;0.01092;351.04309;0.00922
349.95566;0.01154;349.95566;0.01143;349.95566;0.01093;349.95566;0.00907
349.02344;0.01137;349.02344;0.01129;349.02344;0.01103;349.02344;0.00902
347.9357;0.01105;347.9357;0.01106;347.9357;0.01079;347.9357;0.00893
347.00323;0.01103;347.00323;0.01073;347.00323;0.01037;347.00323;0.00865
346.07062;0.01071;346.07062;0.01055;346.07062;0.01029;346.07062;0.0083
344.98245;0.01091;344.98245;0.0106;344.98245;0.01062;344.98245;0.00853
344.04959;0.01087;344.04959;0.01036;344.04959;0.01014;344.04959;0.00849
342.96109;0.01101;342.96109;0.01038;342.96109;0.01055;342.96109;0.00851
342.02798;0.01126;342.02798;0.01054;342.02798;0.01032;342.02798;0.00866
340.93921;0.01182;340.93921;0.01099;340.93921;0.01105;340.93921;0.00909
340.00583;0.0122;340.00583;0.01129;340.00583;0.01141;340.00583;0.00926
339.07233;0.01306;339.07233;0.012;339.07233;0.01203;339.07233;0.01012
337.98312;0.01406;337.98312;0.01274;337.98312;0.01286;337.98312;0.01091
337.04938;0.01527;337.04938;0.0138;337.04938;0.01363;337.04938;0.01189
335.95984;0.01692;335.95984;0.01558;335.95984;0.01541;335.95984;0.01357
335.02585;0.01904;335.02585;0.01714;335.02585;0.0169;335.02585;0.01502
333.93604;0.02135;333.93604;0.01906;333.93604;0.01872;333.93604;0.01682
333.0018;0.02278;333.0018;0.02021;333.0018;0.02018;333.0018;0.01825
332.06741;0.02492;332.06741;0.02203;332.06741;0.02201;332.06741;0.02007
330.97717;0.0275;330.97717;0.02397;330.97717;0.02402;330.97717;0.02177
330.04257;0.02831;330.04257;0.0248;330.04257;0.02466;330.04257;0.02262
328.95203;0.02996;328.95203;0.02635;328.95203;0.02612;328.95203;0.02404
328.01718;0.03187;328.01718;0.02782;328.01718;0.02756;328.01718;0.02567
326.92636;0.03286;326.92636;0.02898;326.92636;0.02874;326.92636;0.0266
325.99124;0.03527;325.99124;0.03107;325.99124;0.03089;325.99124;0.02881
325.05603;0.03735;325.05603;0.03301;325.05603;0.03287;325.05603;0.03035
323.96478;0.04018;323.96478;0.03542;323.96478;0.03539;323.96478;0.03278
323.02933;0.0414;323.02933;0.03704;323.02933;0.03709;323.02933;0.03423
321.93781;0.04458;321.93781;0.03991;321.93781;0.03981;321.93781;0.03696
321.00211;0.04758;321.00211;0.04282;321.00211;0.04265;321.00211;0.03979
320.06628;0.05079;320.06628;0.04611;320.06628;0.04571;320.06628;0.04259
318.97433;0.05358;318.97433;0.04911;318.97433;0.04897;318.97433;0.04534
318.03827;0.05595;318.03827;0.05137;318.03827;0.05107;318.03827;0.04756
316.94608;0.05908;316.94608;0.05459;316.94608;0.0542;316.94608;0.05063
316.00977;0.06224;316.00977;0.05765;316.00977;0.05721;316.00977;0.05353
315.07336;0.06438;315.07336;0.06024;315.07336;0.0593;315.07336;0.05557
313.98074;0.06707;313.98074;0.06295;313.98074;0.06233;313.98074;0.05824
313.0441;0.06947;313.0441;0.06499;313.0441;0.06432;313.0441;0.06011
311.9512;0.07217;311.9512;0.06814;311.9512;0.06736;311.9512;0.06312
311.01434;0.07544;311.01434;0.07157;311.01434;0.0704;311.01434;0.06602
310.07733;0.07851;310.07733;0.07425;310.07733;0.07317;310.07733;0.06893
308.98404;0.0821;308.98404;0.07795;308.98404;0.07674;308.98404;0.07231
308.04681;0.08539;308.04681;0.0807;308.04681;0.07976;308.04681;0.07474
306.95328;0.08946;306.95328;0.08492;306.95328;0.0835;306.95328;0.07857
306.01581;0.09396;306.01581;0.08914;306.01581;0.08767;306.01581;0.0825
304.922;0.09899;304.922;0.09398;304.922;0.09234;304.922;0.08694
303.98431;0.10319;303.98431;0.09819;303.98431;0.09582;303.98431;0.09083
303.04651;0.10709;303.04651;0.10202;303.04651;0.09957;303.04651;0.09414
301.9523;0.11351;301.9523;0.10748;301.9523;0.10483;301.9523;0.09964
301.01428;0.12005;301.01428;0.11351;301.01428;0.11041;301.01428;0.10493
300.07614;0.1256;300.07614;0.11907;300.07614;0.1163;300.07614;0.11054
298.98154;0.13422;298.98154;0.12733;298.98154;0.12399;298.98154;0.11823
298.04321;0.14117;298.04321;0.13433;298.04321;0.13034;298.04321;0.1244
296.94833;0.15102;296.94833;0.14311;296.94833;0.13956;296.94833;0.13319
296.00977;0.16079;296.00977;0.15304;296.00977;0.14849;296.00977;0.1415
295.07111;0.1695;295.07111;0.16177;295.07111;0.15668;295.07111;0.14974
293.97583;0.17938;293.97583;0.17053;293.97583;0.1655;293.97583;0.15838
293.03696;0.18626;293.03696;0.17686;293.03696;0.17175;293.03696;0.16447
291.94144;0.19477;291.94144;0.18527;291.94144;0.17951;291.94144;0.17221
291.00232;0.20278;291.00232;0.19273;291.00232;0.18654;291.00232;0.17941
290.06311;0.20763;290.06311;0.19772;290.06311;0.19149;290.06311;0.18358
288.96722;0.21299;288.96722;0.20256;288.96722;0.19617;288.96722;0.18825
288.0278;0.21621;288.0278;0.20595;288.0278;0.19933;288.0278;0.19142
286.93167;0.22118;286.93167;0.21005;286.93167;0.20359;286.93167;0.19581
285.99203;0.22598;285.99203;0.21516;285.99203;0.20792;285.99203;0.19998
285.05228;0.23073;285.05228;0.21959;285.05228;0.21254;285.05228;0.20438
283.95578;0.2374;283.95578;0.22637;283.95578;0.21951;283.95578;0.21042
283.01581;0.24381;283.01581;0.23231;283.01581;0.225;283.01581;0.21627
282.07574;0.25307;282.07574;0.24095;282.07574;0.23307;282.07574;0.22373
280.97888;0.26456;280.97888;0.25122;280.97888;0.24314;280.97888;0.23368
280.0386;0.27312;280.0386;0.2596;280.0386;0.25172;280.0386;0.2416
278.9415;0.28371;278.9415;0.27045;278.9415;0.26242;278.9415;0.25161
278.00104;0.29162;278.00104;0.27849;278.00104;0.26946;278.00104;0.25885
277.06046;0.30105;277.06046;0.28803;277.06046;0.27875;277.06046;0.26775
275.96298;0.31347;275.96298;0.29951;275.96298;0.29029;275.96298;0.27877
275.02219;0.32424;275.02219;0.30935;275.02219;0.29972;275.02219;0.28778
273.9245;0.33893;273.9245;0.32309;273.9245;0.31339;273.9245;0.30101
272.98349;0.34833;272.98349;0.33348;272.98349;0.32245;272.98349;0.3096
272.04242;0.36137;272.04242;0.34539;272.04242;0.33492;272.04242;0.3216
270.94437;0.37464;270.94437;0.35799;270.94437;0.34682;270.94437;0.33313
270.00305;0.38168;270.00305;0.36512;270.00305;0.35366;270.00305;0.33941
269.06168;0.38613;269.06168;0.36942;269.06168;0.35781;269.06168;0.34371
267.96326;0.38781;267.96326;0.37093;267.96326;0.35929;267.96326;0.34545
267.02167;0.38552;267.02167;0.36897;267.02167;0.35735;267.02167;0.34362
265.92303;0.3802;265.92303;0.36366;265.92303;0.35232;265.92303;0.33891
264.98126;0.37275;264.98126;0.35684;264.98126;0.34543;264.98126;0.33228
264.03937;0.36387;264.03937;0.3485;264.03937;0.33772;264.03937;0.32484
262.9404;0.35268;262.9404;0.33802;262.9404;0.32758;262.9404;0.31511
261.99832;0.34277;261.99832;0.32795;261.99832;0.31824;261.99832;0.30602
261.05615;0.33151;261.05615;0.31758;261.05615;0.30806;261.05615;0.29645
259.95682;0.32157;259.95682;0.30753;259.95682;0.29864;259.95682;0.28751
259.01447;0.31516;259.01447;0.30168;259.01447;0.29288;259.01447;0.28182
258.07202;0.30732;258.07202;0.29418;258.07202;0.28558;258.07202;0.27474
256.97235;0.2963;256.97235;0.28354;256.97235;0.27537;256.97235;0.26509
256.02972;0.28734;256.02972;0.2748;256.02972;0.26701;256.02972;0.25702
254.92984;0.27708;254.92984;0.26477;254.92984;0.25763;254.92984;0.24783
253.987;0.26889;253.987;0.2572;253.987;0.25009;253.987;0.2409
253.04407;0.26089;253.04407;0.24958;253.04407;0.24261;253.04407;0.23399
251.94388;0.252;251.94388;0.24087;251.94388;0.23437;251.94388;0.22577
251.00075;0.24503;251.00075;0.23427;251.00075;0.22793;251.00075;0.21958
250.05754;0.2384;250.05754;0.2279;250.05754;0.2219;250.05754;0.21406
248.96324;0.23261;248.96324;0.22242;248.96324;0.21647;248.96324;0.20901
248.02548;0.2289;248.02548;0.21875;248.02548;0.21292;248.02548;0.20554
246.9313;0.22496;246.9313;0.21493;246.9313;0.20921;246.9313;0.20199
245.99335;0.22291;245.99335;0.21338;245.99335;0.20785;245.99335;0.19983
245.05531;0.22204;245.05531;0.21186;245.05531;0.20665;245.05531;0.19912
243.96083;0.22204;243.96083;0.2126;243.96083;0.20655;243.96083;0.19975
243.02261;0.22431;243.02261;0.21436;243.02261;0.20844;243.02261;0.20156
241.92792;0.22918;241.92792;0.21964;241.92792;0.21317;241.92792;0.20588
240.9895;0.23701;240.9895;0.22676;240.9895;0.2199;240.9895;0.21195
240.05103;0.24644;240.05103;0.23598;240.05103;0.22809;240.05103;0.22133
238.95602;0.25972;238.95602;0.24965;238.95602;0.24199;238.95602;0.23485
238.01735;0.27756;238.01735;0.26657;238.01735;0.25795;238.01735;0.24816
236.92213;0.30583;236.92213;0.29155;236.92213;0.28307;236.92213;0.27464
235.98329;0.345;235.98329;0.32841;235.98329;0.31909;235.98329;0.30784
235.04437;0.38555;235.04437;0.36621;235.04437;0.35444;235.04437;0.34275
233.94885;0.44005;233.94885;0.42879;233.94885;0.40489;233.94885;0.396
233.00977;0.49511;233.00977;0.46989;233.00977;0.45464;233.00977;0.44221
232.07059;0.56177;232.07059;0.53536;232.07059;0.51577;232.07059;0.49753
230.97476;0.60712;230.97476;0.5689;230.97476;0.55429;230.97476;0.54247
230.03542;0.61739;230.03542;0.57278;230.03542;0.56088;230.03542;0.53527
228.93941;0.65533;228.93941;0.61416;228.93941;0.57373;228.93941;0.5748
227.99988;0.67158;227.99988;0.64415;227.99988;0.59719;227.99988;0.58476
227.06027;0.6191;227.06027;0.59289;227.06027;0.56788;227.06027;0.57219
225.96397;0.48113;225.96397;0.44599;225.96397;0.4389;225.96397;0.44429
225.0242;0.38798;225.0242;0.34216;225.0242;0.33146;225.0242;0.36422
223.9277;0.34855;223.9277;0.28982;223.9277;0.28791;223.9277;0.31816
222.98776;0.33458;222.98776;0.25947;222.98776;0.25775;222.98776;0.29774
222.04774;0.31369;222.04774;0.26517;222.04774;0.25936;222.04774;0.33037
220.95096;0.34827;220.95096;0.29417;220.95096;0.24724;220.95096;0.3072
220.01079;0.36419;220.01079;0.24648;220.01079;0.22555;220.01079;0.32518
219.07053;0.3405;219.07053;0.26613;219.07053;0.25663;219.07053;0.33678
217.97347;0.27986;217.97347;0.22352;217.97347;0.23797;217.97347;0.24919
217.03304;0.25187;217.03304;0.21241;217.03304;0.20163;217.03304;0.24006
215.93579;0.25797;215.93579;0.22552;215.93579;0.18797;215.93579;0.24775
214.99519;0.28009;214.99519;0.20344;214.99519;0.20678;214.99519;0.26874
214.05455;0.22862;214.05455;0.15454;214.05455;0.18194;214.05455;0.21342
212.95702;0.23362;212.95702;0.19166;212.95702;0.17199;212.95702;0.18538
212.0162;0.23356;212.0162;0.18257;212.0162;0.13035;212.0162;0.23513
211.0753;0.2868;211.0753;0.2037;211.0753;0.18068;211.0753;0.18358
209.97751;0.29504;209.97751;0.16147;209.97751;0.18038;209.97751;0.24381
209.03647;0.24833;209.03647;0.1663;209.03647;0.20867;209.03647;0.18219
207.93849;0.26044;207.93849;0.17637;207.93849;0.24527;207.93849;0.25738
206.99728;0.23539;206.99728;0.15783;206.99728;0.15337;206.99728;0.20194
206.056;0.23202;206.056;0.20207;206.056;0.16707;206.056;0.22086
204.95776;0.29304;204.95776;0.23951;204.95776;0.18235;204.95776;0.23031
204.01634;0.18818;204.01634;0.13467;204.01634;0.15617;204.01634;0.18653
203.07483;0.2532;203.07483;0.18874;203.07483;0.16657;203.07483;0.26198
201.97633;0.31353;201.97633;0.20751;201.97633;0.158;201.97633;0.28702
201.03468;0.2397;201.03468;0.18437;201.03468;0.15061;201.03468;0.23054
199.93523;0.1806;199.93523;0.24959;199.93523;0.15532;199.93523;0.19267
;--;--;--;--;--;--;--
Sample5;--;--;--;--;--;--;--
Sample5;--;--;--;--;--;--;--
Collection Time: 30/9/2015 10:05:02;--;--;--;--;--;--;--
Operator Name  :;--;--;--;--;--;--;--
Scan Software Version: 3.00(339);--;--;--;--;--;--;--
Parameter List :;--;--;--;--;--;--;--
Instrument                        Cary 50;--;--;--;--;--;--;--
Instrument Version                3,00;--;--;--;--;--;--;--
Start (nm)                        800,0;--;--;--;--;--;--;--
Stop (nm)                         200,0;--;--;--;--;--;--;--
X Mode                            Nanometers;--;--;--;--;--;--;--
Y Mode                            Abs;--;--;--;--;--;--;--
UV-Vis Scan Rate (nm/min)         600,00;--;--;--;--;--;--;--
UV-Vis Data Interval (nm)         1,00;--;--;--;--;--;--;--
UV-Vis Ave. Time (sec)            0,1000;--;--;--;--;--;--;--
Beam Mode                         Dual Beam;--;--;--;--;--;--;--
Baseline Correction               On;--;--;--;--;--;--;--
Baseline Type                     Baseline correction;--;--;--;--;--;--;--
Baseline Std Ref File Name;--;--;--;--;--;--;--
Cycle Mode                        Off;--;--;--;--;--;--;--
Accessory                         Cell changer;--;--;--;--;--;--;--
Comments;--;--;--;--;--;--;--
Method Log     :;--;--;--;--;--;--;--
Method Name    :;--;--;--;--;--;--;--
Date/Time stamp: 30/9/2015 09:38:46;--;--;--;--;--;--;--
Method Modifications:;--;--;--;--;--;--;--
UVVIS SAT Changed: 30/9/2015 09:47:01, Old:0,0125, New:0,1000;--;--;--;--;--;--;--
Common SAT Changed: 30/9/2015 09:47:01, Old:0,0125, New:0,1000;--;--;--;--;--;--;--
Common Interval nm Changed: 30/9/2015 09:47:13, Old:     5,00, New:     1,00;--;--;--;--;--;--;--
Baseline Correction Changed: 30/9/2015 09:47:13, Old:0, New:1;--;--;--;--;--;--;--
Cell Changer Changed: 30/9/2015 09:47:13, Old:OFF, New:ON;--;--;--;--;--;--;--
Cell1 Changed: 30/9/2015 09:47:13, Old:ON, New:OFF;--;--;--;--;--;--;--
Cell2 Changed: 30/9/2015 09:47:13, Old:ON, New:OFF;--;--;--;--;--;--;--
Cell3 Changed: 30/9/2015 09:47:13, Old:ON, New:OFF;--;--;--;--;--;--;--
Cell4 Changed: 30/9/2015 09:47:13, Old:ON, New:OFF;--;--;--;--;--;--;--
Cell6 Changed: 30/9/2015 09:47:13, Old:ON, New:OFF;--;--;--;--;--;--;--
End Method Modifications;--;--;--;--;--;--;--
<Current Cell> , 5;--;--;--;--;--;--;--
<Current Wavelength> , 199,9;--;--;--;--;--;--;--
;--;--;--;--;--;--;--
Sample5;--;--;--;--;--;--;--
Sample5;--;--;--;--;--;--;--
Collection Time: 30/9/2015 10:08:13;--;--;--;--;--;--;--
Operator Name  :;--;--;--;--;--;--;--
Scan Software Version: 3.00(339);--;--;--;--;--;--;--
Parameter List :;--;--;--;--;--;--;--
Instrument                        Cary 50;--;--;--;--;--;--;--
Instrument Version                3,00;--;--;--;--;--;--;--
Start (nm)                        800,0;--;--;--;--;--;--;--
Stop (nm)                         200,0;--;--;--;--;--;--;--
X Mode                            Nanometers;--;--;--;--;--;--;--
Y Mode                            Abs;--;--;--;--;--;--;--
UV-Vis Scan Rate (nm/min)         600,00;--;--;--;--;--;--;--
UV-Vis Data Interval (nm)         1,00;--;--;--;--;--;--;--
UV-Vis Ave. Time (sec)            0,1000;--;--;--;--;--;--;--
Beam Mode                         Dual Beam;--;--;--;--;--;--;--
Baseline Correction               On;--;--;--;--;--;--;--
Baseline Type                     Baseline correction;--;--;--;--;--;--;-;--;--;--;--;--;--;--
Baseline Std Ref File Name;--;--;--;--;--;--;--
Cycle Mode                        Off;--;--;--;--;--;--;--
Accessory                         Cell changer;--;--;--;--;--;--;--
Comments;--;--;--;--;--;--;--
Method Log     :;--;--;--;--;--;--;--
Method Name    :;--;--;--;--;--;--;--
Date/Time stamp: 30/9/2015 09:38:46;--;--;--;--;--;--;--
Method Modifications:;--;--;--;--;--;--;--
UVVIS SAT Changed: 30/9/2015 09:47:01, Old:0,0125, New:0,1000;--;--;--;--;--;--;--
Common SAT Changed: 30/9/2015 09:47:01, Old:0,0125, New:0,1000;--;--;--;--;--;--;--
Common Interval nm Changed: 30/9/2015 09:47:13, Old:     5,00, New:     1,00;--;--;--;--;--;--;--
Baseline Correction Changed: 30/9/2015 09:47:13, Old:0, New:1;--;--;--;--;--;--;--
Cell Changer Changed: 30/9/2015 09:47:13, Old:OFF, New:ON;--;--;--;--;--;--;--
Cell1 Changed: 30/9/2015 09:47:13, Old:ON, New:OFF;--;--;--;--;--;--;--
Cell2 Changed: 30/9/2015 09:47:13, Old:ON, New:OFF;--;--;--;--;--;--;--
Cell3 Changed: 30/9/2015 09:47:13, Old:ON, New:OFF;--;--;--;--;--;--;--
Cell4 Changed: 30/9/2015 09:47:13, Old:ON, New:OFF;--;--;--;--;--;--;--
Cell6 Changed: 30/9/2015 09:47:13, Old:ON, New:OFF;--;--;--;--;--;--;--
End Method Modifications;--;--;--;--;--;--;--
<Current Cell> , 5;--;--;--;--;--;--;--
<Current Wavelength> , 199,9;--;--;--;--;--;--;--
;--;--;--;--;--;--;--
Sample5;--;--;--;--;--;--;--
Sample5;--;--;--;--;--;--;--
Collection Time: 30/9/2015 10:11:06;--;--;--;--;--;--;--
Operator Name  :;--;--;--;--;--;--;--
Scan Software Version: 3.00(339);--;--;--;--;--;--;--
Parameter List :;--;--;--;--;--;--;--
Instrument                        Cary 50;--;--;--;--;--;--;--
Instrument Version                3,00;--;--;--;--;--;--;--
Start (nm)                        800,0;--;--;--;--;--;--;--
Stop (nm)                         200,0;--;--;--;--;--;--;--
X Mode                            Nanometers;--;--;--;--;--;--;--
Y Mode                            Abs;--;--;--;--;--;--;--
UV-Vis Scan Rate (nm/min)         600,00;--;--;--;--;--;--;--
UV-Vis Data Interval (nm)         1,00;--;--;--;--;--;--;--
UV-Vis Ave. Time (sec)            0,1000;--;--;--;--;--;--;--
Beam Mode                         Dual Beam;--;--;--;--;--;--;--
Baseline Correction               On;--;--;--;--;--;--;--
Baseline Type                     Baseline correction;--;--;--;--;--;--;--
Baseline File Name                ;--;--;--;--;--;--;--
Baseline Std Ref File Name;--;--;--;--;--;--;--
Cycle Mode                        Off;--;--;--;--;--;--;--
Accessory                         Cell changer;--;--;--;--;--;--;--
Comments;--;--;--;--;--;--;--
Method Log     :;--;--;--;--;--;--;--
Method Name    :;--;--;--;--;--;--;--
Date/Time stamp: 30/9/2015 09:38:46;--;--;--;--;--;--;--
Method Modifications:;--;--;--;--;--;--;--
UVVIS SAT Changed: 30/9/2015 09:47:01, Old:0,0125, New:0,1000;--;--;--;--;--;--;--
Common SAT Changed: 30/9/2015 09:47:01, Old:0,0125, New:0,1000;--;--;--;--;--;--;--
Common Interval nm Changed: 30/9/2015 09:47:13, Old:     5,00, New:     1,00;--;--;--;--;--;--;--
Baseline Correction Changed: 30/9/2015 09:47:13, Old:0, New:1;--;--;--;--;--;--;--
Cell Changer Changed: 30/9/2015 09:47:13, Old:OFF, New:ON;--;--;--;--;--;--;--
Cell1 Changed: 30/9/2015 09:47:13, Old:ON, New:OFF;--;--;--;--;--;--;--
Cell2 Changed: 30/9/2015 09:47:13, Old:ON, New:OFF;--;--;--;--;--;--;--
Cell3 Changed: 30/9/2015 09:47:13, Old:ON, New:OFF;--;--;--;--;--;--;--
Cell4 Changed: 30/9/2015 09:47:13, Old:ON, New:OFF;--;--;--;--;--;--;--
Cell6 Changed: 30/9/2015 09:47:13, Old:ON, New:OFF;--;--;--;--;--;--;--
End Method Modifications;--;--;--;--;--;--;--
<Current Cell> , 5;--;--;--;--;--;--;--
<Current Wavelength> , 199,9;--;--;--;--;--;--;--
;--;--;--;--;--;--;--
Sample5;--;--;--;--;--;--;--
Sample5;--;--;--;--;--;--;--
Collection Time: 30/9/2015 10:13:29;--;--;--;--;--;--;--
Operator Name  :;--;--;--;--;--;--;--
Scan Software Version: 3.00(339);--;--;--;--;--;--;--
Parameter List :;--;--;--;--;--;--;--
Instrument                        Cary 50;--;--;--;--;--;--;--
Instrument Version                3,00;--;--;--;--;--;--;--
Start (nm)                        800,0;--;--;--;--;--;--;--
Stop (nm)                         200,0;--;--;--;--;--;--;--
X Mode                            Nanometers;--;--;--;--;--;--;--
Y Mode                            Abs;--;--;--;--;--;--;--
UV-Vis Scan Rate (nm/min)         600,00;--;--;--;--;--;--;--
UV-Vis Data Interval (nm)         1,00;--;--;--;--;--;--;--
UV-Vis Ave. Time (sec)            0,1000;--;--;--;--;--;--;--
Beam Mode                         Dual Beam;--;--;--;--;--;--;--
Baseline Correction               On;--;--;--;--;--;--;--
Baseline Type                     Baseline correction;--;--;--;--;--;--;--
Baseline File Name                D:\Giliandro\CuPhenPOP\7.BSW;--;--;--;--;--;--;--
Baseline Std Ref File Name;--;--;--;--;--;--;--
Cycle Mode                        Off;--;--;--;--;--;--;--
Accessory                         Cell changer;--;--;--;--;--;--;--
Comments;--;--;--;--;--;--;--
Method Log     :;--;--;--;--;--;--;--
Method Name    :;--;--;--;--;--;--;--
Date/Time stamp: 30/9/2015 09:38:46;--;--;--;--;--;--;--
Method Modifications:;--;--;--;--;--;--;--
UVVIS SAT Changed: 30/9/2015 09:47:01, Old:0,0125, New:0,1000;--;--;--;--;--;--;--
Common SAT Changed: 30/9/2015 09:47:01, Old:0,0125, New:0,1000;--;--;--;--;--;--;--
Common Interval nm Changed: 30/9/2015 09:47:13, Old:     5,00, New:     1,00;--;--;--;--;--;--;--
Baseline Correction Changed: 30/9/2015 09:47:13, Old:0, New:1;--;--;--;--;--;--;--
Cell Changer Changed: 30/9/2015 09:47:13, Old:OFF, New:ON;--;--;--;--;--;--;--
Cell1 Changed: 30/9/2015 09:47:13, Old:ON, New:OFF;--;--;--;--;--;--;--
Cell2 Changed: 30/9/2015 09:47:13, Old:ON, New:OFF;--;--;--;--;--;--;--
Cell3 Changed: 30/9/2015 09:47:13, Old:ON, New:OFF;--;--;--;--;--;--;--
Cell4 Changed: 30/9/2015 09:47:13, Old:ON, New:OFF;--;--;--;--;--;--;--
Cell6 Changed: 30/9/2015 09:47:13, Old:ON, New:OFF;--;--;--;--;--;--;--
End Method Modifications;--;--;--;--;--;--;--
<Current Cell> , 5;--;--;--;--;--;--;--
<Current Wavelength> , 199,9;--;--;--;--;--;--;--
